File: RED MUD SA_XRD.txt
Index	X	Acquisition
0	-6.31123	0
14	-5.88678	5
28	-5.46233	2
42	-5.03788	2
56	-4.61343	4
70	-4.18898	0
84	-3.76453	0
98	-3.34008	5
112	-2.91563	4
126	-2.49118	5
140	-2.06673	3
154	-1.64228	3
168	-1.21782	2
182	-0.793373	6
196	-0.368922	8
210	0.0555284	8
224	0.479979	0
238	0.904431	4
252	1.32888	20
266	1.75333	207
280	2.17779	205
294	2.60224	237
308	3.0267	217
322	3.45116	232
336	3.87562	271
350	4.30008	296
364	4.72455	264
378	5.14901	260
392	5.57348	261
406	5.99796	260
420	6.42244	280
434	6.84692	273
448	7.2714	283
462	7.69589	259
476	8.12039	287
490	8.54489	286
504	8.96939	317
518	9.3939	313
532	9.81841	343
546	10.2429	373
560	10.6675	366
574	11.092	402
588	11.5165	391
602	11.9411	417
616	12.3656	435
630	12.7902	469
644	13.2148	464
658	13.6393	536
672	14.0639	537
686	14.4885	599
700	14.9131	567
714	15.3377	605
728	15.7623	606
742	16.187	571
756	16.6116	609
770	17.0363	655
784	17.4609	633
798	17.8856	691
812	18.3103	630
826	18.7349	702
840	19.1596	694
854	19.5844	664
868	20.0091	711
882	20.4338	731
896	20.8586	739
910	21.2833	825
924	21.7081	806
938	22.1329	703
952	22.5577	731
966	22.9825	811
980	23.4073	754
994	23.8321	854
1008	24.257	910
1022	24.6819	848
1036	25.1067	844
1050	25.5316	819
1064	25.9565	853
1078	26.3815	880
1092	26.8064	875
1106	27.2314	883
1120	27.6563	925
1134	28.0813	897
1148	28.5063	838
1162	28.9314	925
1176	29.3564	923
1190	29.7814	931
1204	30.2065	919
1218	30.6316	932
1232	31.0567	963
1246	31.4818	1008
1260	31.9069	994
1274	32.3321	1017
1288	32.7572	1096
1302	33.1824	1247
1316	33.6076	1102
1330	34.0328	1061
1344	34.458	1091
1358	34.8832	1101
1372	35.3084	1164
1386	35.7337	1280
1400	36.1589	1152
1414	36.5842	1149
1428	37.0095	1207
1442	37.4348	1131
1456	37.86	1155
1470	38.2853	1150
1484	38.7107	1204
1498	39.136	1245
1512	39.5613	1243
1526	39.9866	1258
1540	40.412	1221
1554	40.8373	1330
1568	41.2627	1272
1582	41.688	1217
1596	42.1134	1279
1610	42.5388	1255
1624	42.9641	1237
1638	43.3895	1264
1652	43.8149	1305
1666	44.2403	1323
1680	44.6657	1317
1694	45.0911	1390
1708	45.5165	1313
1722	45.9419	1351
1736	46.3673	1427
1750	46.7927	1366
1764	47.2181	1410
1778	47.6435	1425
1792	48.0689	1392
1806	48.4943	1370
1820	48.9197	1426
1834	49.3452	1428
1848	49.7707	1453
1862	50.1962	1445
1876	50.6217	1451
1890	51.0473	1484
1904	51.4729	1431
1918	51.8986	1486
1932	52.3243	1458
1946	52.75	1471
1960	53.1759	1419
1974	53.6017	1658
1988	54.0277	1680
2002	54.4537	1597
2016	54.8798	1554
2030	55.306	1556
2044	55.7323	1567
2058	56.1587	1608
2072	56.5851	1588
2086	57.0117	1534
2100	57.4383	1600
2114	57.865	1597
2128	58.2918	1641
2142	58.7187	1604
2156	59.1456	1626
2170	59.5726	1630
2184	59.9996	1631
2198	60.4267	1629
2212	60.8538	1576
2226	61.281	1538
2240	61.7081	1576
2254	62.1354	1641
2268	62.5626	1697
2282	62.9898	1632
2296	63.4171	1690
2310	63.8444	1756
2324	64.2716	1805
2338	64.6989	1773
2352	65.1262	1636
2366	65.5534	1682
2380	65.9806	1673
2394	66.4078	1701
2408	66.8349	1715
2422	67.2621	1764
2436	67.6891	1736
2450	68.1162	1752
2464	68.5431	1804
2478	68.9701	1742
2492	69.3969	1822
2506	69.8237	1737
2520	70.2505	1829
2534	70.6772	1751
2548	71.1039	1725
2562	71.5307	1793
2576	71.9574	1793
2590	72.3842	1762
2604	72.811	1784
2618	73.2379	1712
2632	73.6649	1745
2646	74.092	1679
2660	74.5192	1787
2674	74.9465	1784
2688	75.374	1783
2702	75.8016	1743
2716	76.2294	1764
2730	76.6574	1843
2744	77.0855	1708
2758	77.5139	1820
2772	77.9424	1885
2786	78.3711	1881
2800	78.7999	1803
2814	79.2289	1859
2828	79.6581	1911
2842	80.0874	1902
2856	80.5168	1873
2870	80.9464	1842
2884	81.376	1820
2898	81.8058	1763
2912	82.2357	1956
2926	82.6656	1889
2940	83.0957	1927
2954	83.5258	1967
2968	83.956	1898
2982	84.3863	1975
2996	84.8167	1945
3010	85.2471	1926
3024	85.6775	1894
3038	86.108	1954
3052	86.5385	1885
3066	86.969	1990
3080	87.3996	1890
3094	87.8301	2013
3108	88.2607	1882
3122	88.6912	2056
3136	89.1218	1960
3150	89.5524	1956
3164	89.983	1871
3178	90.4136	1947
3192	90.8443	1972
3206	91.275	1864
3220	91.7057	1936
3234	92.1365	1957
3248	92.5674	1973
3262	92.9983	1972
3276	93.4292	1974
3290	93.8603	1961
3304	94.2914	1977
3318	94.7226	1944
3332	95.1539	1933
3346	95.5853	1954
3360	96.0168	2029
3374	96.4483	1938
3388	96.88	1961
3402	97.3116	1927
3416	97.7434	1938
3430	98.1752	2008
3444	98.607	2007
3458	99.0389	2022
3472	99.4708	1988
3486	99.9027	2004
3500	100.335	2083
3514	100.767	1988
3528	101.198	1975
3542	101.63	2086
3556	102.062	2046
3570	102.494	1984
3584	102.926	2137
3598	103.358	1995
3612	103.79	2040
3626	104.221	2023
3640	104.653	1983
3654	105.085	2067
3668	105.516	2007
3682	105.948	2020
3696	106.379	2021
3710	106.81	2003
3724	107.242	2059
3738	107.673	2020
3752	108.104	2244
3766	108.535	2084
3780	108.966	2054
3794	109.397	2096
3808	109.827	2162
3822	110.258	2201
3836	110.689	2186
3850	111.119	2295
3864	111.55	2158
3878	111.98	2280
3892	112.411	2148
3906	112.841	2085
3920	113.272	2187
3934	113.702	2171
3948	114.133	2130
3962	114.564	2202
3976	114.995	2503
3990	115.427	1414
4004	115.858	25
4018	116.289	19
4032	116.721	5
4046	117.152	4
4060	117.583	2
4074	118.014	0
4088	118.446	0
4095	118.661	0