File: RED MUD SB_XRD.txt
Index	X	Acquisition
0	-6.31123	0
14	-5.88678	2
28	-5.46233	5
42	-5.03788	3
56	-4.61343	1
70	-4.18898	2
84	-3.76453	5
98	-3.34008	4
112	-2.91563	2
126	-2.49118	3
140	-2.06673	4
154	-1.64228	5
168	-1.21782	2
182	-0.793373	3
196	-0.368922	4
210	0.0555284	11
224	0.479979	7
238	0.904431	8
252	1.32888	16
266	1.75333	234
280	2.17779	201
294	2.60224	182
308	3.0267	233
322	3.45116	237
336	3.87562	276
350	4.30008	284
364	4.72455	248
378	5.14901	306
392	5.57348	275
406	5.99796	272
420	6.42244	279
434	6.84692	279
448	7.2714	321
462	7.69589	343
476	8.12039	344
490	8.54489	355
504	8.96939	363
518	9.3939	399
532	9.81841	412
546	10.2429	386
560	10.6675	406
574	11.092	443
588	11.5165	440
602	11.9411	467
616	12.3656	434
630	12.7902	422
644	13.2148	464
658	13.6393	500
672	14.0639	468
686	14.4885	493
700	14.9131	500
714	15.3377	521
728	15.7623	494
742	16.187	523
756	16.6116	500
770	17.0363	517
784	17.4609	583
798	17.8856	565
812	18.3103	621
826	18.7349	626
840	19.1596	638
854	19.5844	657
868	20.0091	642
882	20.4338	659
896	20.8586	666
910	21.2833	702
924	21.7081	742
938	22.1329	698
952	22.5577	698
966	22.9825	708
980	23.4073	745
994	23.8321	804
1008	24.257	834
1022	24.6819	758
1036	25.1067	819
1050	25.5316	852
1064	25.9565	796
1078	26.3815	925
1092	26.8064	832
1106	27.2314	873
1120	27.6563	870
1134	28.0813	869
1148	28.5063	903
1162	28.9314	871
1176	29.3564	930
1190	29.7814	943
1204	30.2065	928
1218	30.6316	953
1232	31.0567	1013
1246	31.4818	1010
1260	31.9069	1040
1274	32.3321	1022
1288	32.7572	1103
1302	33.1824	1190
1316	33.6076	1084
1330	34.0328	1091
1344	34.458	1130
1358	34.8832	1114
1372	35.3084	1166
1386	35.7337	1300
1400	36.1589	1154
1414	36.5842	1127
1428	37.0095	1131
1442	37.4348	1170
1456	37.86	1156
1470	38.2853	1309
1484	38.7107	1212
1498	39.136	1257
1512	39.5613	1243
1526	39.9866	1204
1540	40.412	1245
1554	40.8373	1319
1568	41.2627	1210
1582	41.688	1296
1596	42.1134	1264
1610	42.5388	1209
1624	42.9641	1291
1638	43.3895	1212
1652	43.8149	1247
1666	44.2403	1319
1680	44.6657	1262
1694	45.0911	1327
1708	45.5165	1326
1722	45.9419	1365
1736	46.3673	1352
1750	46.7927	1460
1764	47.2181	1369
1778	47.6435	1373
1792	48.0689	1350
1806	48.4943	1360
1820	48.9197	1401
1834	49.3452	1467
1848	49.7707	1452
1862	50.1962	1421
1876	50.6217	1434
1890	51.0473	1426
1904	51.4729	1430
1918	51.8986	1410
1932	52.3243	1501
1946	52.75	1436
1960	53.1759	1494
1974	53.6017	1531
1988	54.0277	1559
2002	54.4537	1510
2016	54.8798	1442
2030	55.306	1527
2044	55.7323	1457
2058	56.1587	1479
2072	56.5851	1465
2086	57.0117	1525
2100	57.4383	1537
2114	57.865	1533
2128	58.2918	1573
2142	58.7187	1590
2156	59.1456	1525
2170	59.5726	1575
2184	59.9996	1506
2198	60.4267	1545
2212	60.8538	1509
2226	61.281	1524
2240	61.7081	1599
2254	62.1354	1528
2268	62.5626	1726
2282	62.9898	1526
2296	63.4171	1609
2310	63.8444	1603
2324	64.2716	1681
2338	64.6989	1652
2352	65.1262	1577
2366	65.5534	1571
2380	65.9806	1575
2394	66.4078	1643
2408	66.8349	1566
2422	67.2621	1610
2436	67.6891	1685
2450	68.1162	1639
2464	68.5431	1637
2478	68.9701	1628
2492	69.3969	1643
2506	69.8237	1634
2520	70.2505	1674
2534	70.6772	1642
2548	71.1039	1692
2562	71.5307	1725
2576	71.9574	1668
2590	72.3842	1687
2604	72.811	1618
2618	73.2379	1666
2632	73.6649	1718
2646	74.092	1605
2660	74.5192	1624
2674	74.9465	1665
2688	75.374	1696
2702	75.8016	1679
2716	76.2294	1660
2730	76.6574	1635
2744	77.0855	1779
2758	77.5139	1876
2772	77.9424	2064
2786	78.3711	1718
2800	78.7999	1771
2814	79.2289	1771
2828	79.6581	1710
2842	80.0874	1778
2856	80.5168	1706
2870	80.9464	1802
2884	81.376	1724
2898	81.8058	1709
2912	82.2357	1792
2926	82.6656	1853
2940	83.0957	1817
2954	83.5258	1787
2968	83.956	1773
2982	84.3863	1826
2996	84.8167	1707
3010	85.2471	1752
3024	85.6775	1680
3038	86.108	1717
3052	86.5385	1799
3066	86.969	1768
3080	87.3996	1769
3094	87.8301	1785
3108	88.2607	1735
3122	88.6912	1787
3136	89.1218	1717
3150	89.5524	1723
3164	89.983	1772
3178	90.4136	1805
3192	90.8443	1758
3206	91.275	1728
3220	91.7057	1790
3234	92.1365	1804
3248	92.5674	1713
3262	92.9983	1819
3276	93.4292	1803
3290	93.8603	1756
3304	94.2914	1718
3318	94.7226	1803
3332	95.1539	1845
3346	95.5853	1782
3360	96.0168	1769
3374	96.4483	1719
3388	96.88	1799
3402	97.3116	1795
3416	97.7434	1831
3430	98.1752	1710
3444	98.607	1758
3458	99.0389	1926
3472	99.4708	1780
3486	99.9027	1776
3500	100.335	1865
3514	100.767	1842
3528	101.198	1834
3542	101.63	1780
3556	102.062	1763
3570	102.494	1810
3584	102.926	1891
3598	103.358	1816
3612	103.79	1796
3626	104.221	1817
3640	104.653	1864
3654	105.085	1780
3668	105.516	1880
3682	105.948	1910
3696	106.379	1908
3710	106.81	1917
3724	107.242	1866
3738	107.673	1958
3752	108.104	1959
3766	108.535	1895
3780	108.966	1904
3794	109.397	1873
3808	109.827	1886
3822	110.258	1888
3836	110.689	1959
3850	111.119	1943
3864	111.55	2073
3878	111.98	2080
3892	112.411	1920
3906	112.841	1991
3920	113.272	1878
3934	113.702	1942
3948	114.133	1981
3962	114.564	1920
3976	114.995	2223
3990	115.427	1327
4004	115.858	20
4018	116.289	5
4032	116.721	12
4046	117.152	5
4060	117.583	2
4074	118.014	0
4088	118.446	0
4095	118.661	0