File: XRD_Sample_Data.txt
5.000000	72059.2
5.260000	71102.5
5.520000	70431.7
5.780000	68985
6.040000	69720
6.300000	69749.2
6.560000	68780.8
6.820000	68891.7
7.080000	68938.3
7.340000	68220.8
7.600000	67165
7.860000	66412.5
8.120000	65485
8.380000	64942.5
8.640000	65531.7
8.900000	66126.7
9.160000	65047.5
9.420000	64102.5
9.680000	65840.8
9.940000	65980.8
10.2	65076.7
10.46	65257.5
10.72	65047.5
10.98	64960
11.24	65228.3
11.5	65543.3
11.76	65520
12.02	66091.7
12.28	65648.3
12.54	67205.8
12.8	66482.5
13.06	67561.7
13.32	67415.8
13.58	67340
13.84	69690.8
14.1	68232.5
14.36	68407.5
14.62	68961.7
14.88	68926.7
15.14	70175
15.4	69031.7
15.66	69965
15.92	70134.2
16.18	70250.8
16.44	71668.3
16.7	71604.2
16.96	73325
17.22	72485
17.48	74637.5
17.74	73675
18	75133.3
18.26	75005
18.52	75296.7
18.78	75220.8
19.04	75751.7
19.3	77746.7
19.56	76370
19.82	78359.2
20.08	79625
20.34	80949.2
20.6	80185
20.86	82372.5
21.12	84746.7
21.38	90072.5
21.64	84285.8
21.9	85061.7
22.16	84630
22.42	85020.8
22.68	85090.8
22.94	85149.2
23.2	86916.7
23.46	85551.7
23.72	87260.8
23.98	91390.8
24.24	100899
24.5	91215.8
24.76	88859.2
25.02	89775
25.28	92277.5
25.54	89845
25.8	89285
26.06	89699.2
26.32	90900.8
26.58	93811.7
26.84	91595
27.1	91851.7
27.36	93024.2
27.62	90749.2
27.88	93164.2
28.14	94377.5
28.4	92995
28.66	93105.8
28.92	94418.3
29.18	93899.2
29.44	95421.7
29.7	94750.8
29.96	94243.3
30.22	95975.8
30.48	95235
30.74	95736.7
31	97119.2
31.26	97830.8
31.52	99312.5
31.78	98134.2
32.04	99429.2
32.3	100829
32.56	100888
32.82	106458
33.08	127616
33.34	118458
33.6	108290
33.86	102521
34.12	101465
34.38	102947
34.64	106132
34.9	102988
35.16	103752
35.42	111399
35.68	138740
35.94	107759
36.2	104318
36.46	103880
36.72	107007
36.98	109218
37.24	105292
37.5	102212
37.76	103244
38.02	100911
38.28	102363
38.54	102533
38.8	102439
39.06	101932
39.32	101278
39.58	101068
39.84	101961
40.1	102247
40.36	104148
40.62	104347
40.88	111452
41.14	105490
41.4	103443
41.66	103437
41.92	103122
42.18	101238
42.44	102743
42.7	104679
42.96	101588
43.22	101990
43.48	101792
43.74	102422
44	103419
44.26	102066
44.52	101477
44.78	102194
45.04	102393
45.3	101943
45.56	102468
45.82	102101
46.08	101844
46.34	102130
46.6	103320
46.86	101669
47.12	102568
47.38	102334
47.64	101500
47.9	103583
48.16	102013
48.42	103927
48.68	102906
48.94	103816
49.2	105233
49.46	113633
49.72	107911
49.98	104726
50.24	102982
50.5	102976
50.76	102883
51.02	103933
51.28	103734
51.54	102655
51.8	102183
52.06	105070
52.32	103559
52.58	102544
52.84	103472
53.1	103606
53.36	105846
53.62	106482
53.88	114176
54.14	118633
54.4	109095
54.66	105385
54.92	103501
55.18	102422
55.44	103163
55.7	103104
55.96	102550
56.22	103093
56.48	103058
56.74	102410
57	102678
57.26	102673
57.52	106324
57.78	105834
58.04	104341
58.3	103233
58.56	102352
58.82	101278
59.08	103227
59.34	102708
59.6	103472
59.86	102433
60.12	103180
60.38	103145
60.64	103501
60.9	103758
61.16	103600
61.42	104446
61.68	104930
61.94	105356
62.2	107427
62.46	111376
62.72	109153
62.98	104504
63.24	104096
63.5	104388
63.76	104650
64.02	112257
64.28	113604
64.54	105963
64.8	104335
65.06	103262
65.32	102328
65.58	102177
65.84	102573
66.1	102579
66.36	102655
66.62	102305
66.88	102813
67.14	103361
67.4	103483
67.66	103326
67.92	103034
68.18	102713
68.44	103559
68.7	102498
68.96	102002
69.22	103851
69.48	105099
69.74	105543
70	104516
70.26	103314
70.52	103338
70.78	104073
71.04	102766
71.3	103647
71.56	105245
71.82	105105
72.08	105607
72.34	104341
72.6	103483
72.86	104726
73.12	102317
73.38	103670
73.64	102521
73.9	102859
74.16	103093
74.42	103536
74.68	102293
74.94	103110
75.2	103489
75.46	104428
75.72	104417
75.98	103571
76.24	102661
76.5	102556
76.76	102393
77.02	102865
77.28	103122
77.54	103285
77.8	102725
78.06	103501
78.32	103402
78.58	102725
78.84	103297
79.1	102288
79.36	103892
79.62	101955
79.88	102159
80	102918